# Wavenumber (cm^-1)  T  A
3.105372 0.996010 0.000008
3.329527 0.995913 0.000009
3.569862 0.995913 0.000009
3.827546 0.995913 0.000009
4.103829 0.995913 0.000010
4.400056 0.995913 0.000010
4.717665 0.995913 0.000010
5.058201 0.995913 0.000011
5.423317 0.995913 0.000011
5.814788 0.995913 0.000012
6.234517 0.995913 0.000012
6.684543 0.995913 0.000013
7.167054 0.995913 0.000013
7.684393 0.995913 0.000014
8.239076 0.995913 0.000014
8.833797 0.995913 0.000015
9.471447 0.995913 0.000016
10.155124 0.995147 0.000017
10.888152 0.991793 0.000019
11.623349 0.988686 0.000021
12.408189 0.979240 0.000023
13.303849 0.977228 0.000025
14.264161 0.970425 0.000027
15.161129 0.963717 0.000029
16.114500 0.957488 0.000031
17.277694 0.953752 0.000036
18.524849 0.949727 0.000041
19.862029 0.940816 0.000048
21.244256 0.929562 0.000054
22.832920 0.922514 0.000061
24.339293 0.910696 0.000067
25.657826 0.901795 0.000069
27.416838 0.891275 0.000073
29.140880 0.878371 0.000077
30.872309 0.867991 0.000083
32.446455 0.855821 0.000092
33.982588 0.843803 0.000100
35.451450 0.828646 0.000109
37.353878 0.815001 0.000120
38.974524 0.801969 0.000129
40.652833 0.790142 0.000138
42.383627 0.777694 0.000148
43.982355 0.762682 0.000157
45.443004 0.750800 0.000158
47.259955 0.737576 0.000156
49.579619 0.727100 0.000154
51.561964 0.714834 0.000157
52.927368 0.700167 0.000163
55.525206 0.688388 0.000174
57.369192 0.675292 0.000181
59.145457 0.661494 0.000183
60.141370 0.651208 0.000181
61.913502 0.638176 0.000177
64.388993 0.625017 0.000173
66.963463 0.614924 0.000172
68.736711 0.601700 0.000172
70.250236 0.588094 0.000172
72.741499 0.571740 0.000181
75.980180 0.558388 0.000197
78.162253 0.543823 0.000209
79.363058 0.531942 0.000219
81.110566 0.520021 0.000238
84.353615 0.509327 0.000273
86.776164 0.496295 0.000312
88.109305 0.484414 0.000336
90.049398 0.471727 0.000373
94.058682 0.460228 0.000430
96.886480 0.444743 0.000460
99.106144 0.429283 0.000480
103.068711 0.420787 0.000494
105.890269 0.406414 0.000503
110.508521 0.390699 0.000494
114.926990 0.377476 0.000432
119.002612 0.362062 0.000378
124.300985 0.347771 0.000367
128.429007 0.333877 0.000409
135.026469 0.319024 0.000459
140.425242 0.306605 0.000459
146.039873 0.292385 0.000451
151.218842 0.281845 0.000487
157.265035 0.268737 0.000699
165.993311 0.254785 0.001003
170.834868 0.248211 0.001008
179.219970 0.246711 0.000733
186.385734 0.233934 0.000630
197.245074 0.219369 0.000641
207.829817 0.206797 0.000727
218.030745 0.195350 0.000857
230.733809 0.183777 0.001210
244.176989 0.171074 0.002594
259.531477 0.158425 0.001683
276.711134 0.167241 0.001149
292.559864 0.187652 0.000944
293.197761 0.174524 0.000943
295.505727 0.215536 0.000952
295.947395 0.203161 0.000956
308.931604 0.154976 0.001029
310.280260 0.161875 0.001027
313.385052 0.177864 0.001022
317.112370 0.197138 0.001428
324.801574 0.207966 0.001174
325.509771 0.240066 0.001135
325.837151 0.224381 0.001117
343.725398 0.228760 0.000923
347.489064 0.217836 0.000883
357.312912 0.200817 0.000754
367.201154 0.192623 0.000808
394.278921 0.192251 0.002042
422.739160 0.181806 0.001337
449.322105 0.173246 0.005604
469.327346 0.161109 0.002446
493.795295 0.156424 0.001306
534.594792 0.170122 0.001589
576.737110 0.184578 0.000460
618.879428 0.201045 0.000229
658.011581 0.202832 0.000269
670.052243 0.191216 0.000386
697.143733 0.180461 0.000564
745.306382 0.189939 0.000990
793.469032 0.181897 0.005959
841.631681 0.172803 0.040543
889.794330 0.170697 0.006838
937.956979 0.169740 0.009166
984.447314 0.178877 0.028980
1028.261946 0.194247 0.008645
1076.424595 0.192141 0.004997
1124.587245 0.189269 0.008013
1172.749894 0.183908 0.035523
1220.912543 0.185440 0.015892
1269.075192 0.189173 0.012815
1317.237841 0.193673 0.015866
1365.400491 0.190706 0.046222
1374.430987 0.163899 0.045934
1377.441153 0.176536 0.046207
1413.563140 0.195492 0.024796
1452.695292 0.171559 0.048170
1458.715623 0.181668 0.050594
1503.868107 0.196737 0.011746
1552.030756 0.192428 0.005701
1600.193405 0.191663 0.004743
1648.356055 0.193194 0.005629
1696.518704 0.193769 0.005714
1744.681353 0.192620 0.007703
1792.844002 0.189939 0.002032
1841.006651 0.187354 0.002153
1889.169300 0.186397 0.002127
1937.331950 0.186971 0.001056
1985.494599 0.189269 0.000987
2033.657248 0.191376 0.001215
2081.819897 0.191663 0.001729
2129.982546 0.192812 0.004473
2178.145196 0.193673 0.004926
2226.307845 0.195875 0.004318
2274.470494 0.198938 0.004341
2322.633143 0.199800 0.004694
2370.795792 0.201236 0.006996
2418.958441 0.202289 0.007597
2467.121091 0.199896 0.005027
2515.283740 0.197119 0.006619
2563.446389 0.194152 0.012674
2611.609038 0.192812 0.020239
2659.771687 0.191663 0.022997
2707.934337 0.190514 0.029489
2756.096986 0.190514 0.025081
2804.259635 0.186684 0.048324
2846.401953 0.170355 0.041471
2889.834342 0.163134 0.041079
2927.213321 0.152412 0.036706
2961.390278 0.149961 0.039705
2971.022808 0.167882 0.041561
2990.889900 0.188152 0.042764
3033.032219 0.194247 0.018015
3081.194868 0.196832 0.012115
3129.357517 0.198651 0.015516
3177.520166 0.200757 0.015714
3225.682815 0.203725 0.008217
3273.845464 0.206023 0.004752
3322.008114 0.207171 0.003821
3370.170763 0.207555 0.004933
3418.333412 0.206885 0.004749
3466.496061 0.206023 0.002466
3514.658710 0.204682 0.001813
3562.821359 0.203151 0.001382
3610.984009 0.201619 0.001780
3659.146658 0.200662 0.002702
3707.309307 0.199513 0.003843
3755.471956 0.199130 0.005069
3803.634605 0.199226 0.005052
3851.797255 0.199992 0.005015
3899.959904 0.201427 0.005753
3948.122553 0.203342 0.005615
3996.285202 0.205352 0.007790
4044.447851 0.207363 0.010814
4092.610500 0.209374 0.009622
4140.773150 0.211288 0.011112
4188.935799 0.212629 0.011316
4237.098448 0.213011 0.018569
4285.261097 0.213586 0.013195
4333.423746 0.213203 0.018710
4381.586396 0.213203 0.012408
4429.749045 0.212916 0.004004
4477.911694 0.211958 0.001635
4526.074343 0.210905 0.001520
4574.236992 0.209565 0.001524
4622.399641 0.208895 0.001334
4670.562291 0.208320 0.001262
4718.724940 0.208895 0.001279
4766.887589 0.209374 0.001353
4815.050238 0.210331 0.001413
4863.212887 0.211767 0.001519
4911.375537 0.213490 0.001536
4959.538186 0.215118 0.001644
5007.700835 0.216745 0.001782
5055.863484 0.218564 0.002022
5104.026133 0.219904 0.002003
5152.188782 0.220862 0.002079
5200.351432 0.221341 0.002139
5248.514081 0.221341 0.002160
5296.676730 0.221053 0.002155
5344.839379 0.220574 0.002032
5393.002028 0.219522 0.002082
5441.164678 0.218947 0.002382
5489.327327 0.218276 0.002540
5537.489976 0.217606 0.002504
5585.652625 0.217511 0.002527
5633.815274 0.217511 0.002844
5681.977923 0.217894 0.003110
5730.140573 0.218755 0.003422
5778.303222 0.219522 0.004422
5826.465871 0.220862 0.004067
5874.628520 0.222298 0.004534
5922.791169 0.224021 0.002862
5970.953819 0.225169 0.001859
5998.045309 0.225169 0.001610
