# Wavenumber (cm^-1)  T  A
3.105372 0.996010 0.000008
3.329527 0.995913 0.000009
3.569862 0.995913 0.000009
3.827546 0.995913 0.000009
4.103829 0.995913 0.000010
4.400056 0.995913 0.000010
4.717665 0.995913 0.000010
5.058201 0.995913 0.000011
5.423317 0.995913 0.000011
5.814788 0.995913 0.000012
6.234517 0.995913 0.000012
6.684543 0.995913 0.000013
7.167054 0.995913 0.000013
7.684393 0.995913 0.000014
8.239076 0.995913 0.000014
8.833797 0.995913 0.000015
9.471447 0.995913 0.000016
10.155124 0.995147 0.000017
10.840826 0.994381 0.000019
12.088086 0.995531 0.000022
12.960641 0.993326 0.000024
13.896179 0.996201 0.000026
14.899247 0.993805 0.000028
15.974719 0.993710 0.000031
17.127822 0.993805 0.000035
18.364160 0.989590 0.000041
19.689741 0.988823 0.000047
21.111005 0.986044 0.000053
22.634861 0.985852 0.000060
24.223449 0.978939 0.000066
25.496892 0.978666 0.000069
27.179017 0.974066 0.000073
29.140880 0.970137 0.000077
31.244357 0.966880 0.000085
33.499668 0.959309 0.000098
35.917775 0.951739 0.000111
38.510428 0.948003 0.000126
41.290227 0.938516 0.000142
44.270680 0.928838 0.000158
47.466270 0.920118 0.000156
50.892529 0.910057 0.000155
54.891195 0.900300 0.000171
56.157644 0.894419 0.000176
58.760256 0.894469 0.000183
59.793078 0.881233 0.000181
61.644390 0.867639 0.000178
65.520751 0.860996 0.000172
68.736711 0.852563 0.000172
71.485016 0.839435 0.000174
75.744138 0.830114 0.000196
78.332678 0.816790 0.000209
79.941337 0.804269 0.000225
82.896553 0.792770 0.000257
87.726332 0.785200 0.000329
90.386249 0.765283 0.000379
92.032210 0.755879 0.000408
96.339376 0.748500 0.000454
98.246472 0.737730 0.000474
101.239366 0.724630 0.000488
104.652154 0.715346 0.000500
107.189714 0.698290 0.000500
111.745588 0.683916 0.000491
115.932620 0.667435 0.000412
120.567961 0.654709 0.000372
125.388638 0.638496 0.000378
130.557071 0.624681 0.000431
137.699399 0.602467 0.000472
142.893479 0.589435 0.000447
148.498948 0.573145 0.000468
153.207960 0.555897 0.000560
157.951583 0.543441 0.000717
165.704333 0.524796 0.000989
169.722260 0.515269 0.001016
176.124255 0.503332 0.000806
183.765632 0.487768 0.000719
193.275912 0.471744 0.000598
201.462837 0.455256 0.000676
208.434239 0.444487 0.000734
214.264641 0.434011 0.000805
223.074397 0.420596 0.001006
233.768860 0.407851 0.001392
245.548371 0.394806 0.002741
255.048521 0.381755 0.001966
265.246142 0.368085 0.001390
281.189628 0.353137 0.001072
296.193052 0.340872 0.000957
306.251852 0.328223 0.000962
318.034613 0.313743 0.001418
327.881597 0.301904 0.001086
346.984871 0.280184 0.000889
347.213959 0.292334 0.000886
347.489064 0.267919 0.000883
356.690865 0.302159 0.000758
365.498929 0.284375 0.000792
375.177646 0.270576 0.000872
385.112663 0.256932 0.000990
393.706837 0.245688 0.002478
401.558803 0.234394 0.003106
413.631345 0.223116 0.001270
424.584648 0.210017 0.001361
439.641567 0.192730 0.002003
447.369093 0.182317 0.004545
459.215800 0.160803 0.008992
481.755526 0.148843 0.001713
501.482971 0.190833 0.001172
501.482971 0.209086 0.001172
510.513468 0.221042 0.001224
526.567684 0.242019 0.004720
549.645620 0.258198 0.000770
577.740499 0.241764 0.000450
580.951342 0.230334 0.000424
583.359475 0.207708 0.000407
588.347749 0.219612 0.000383
618.879428 0.237041 0.000229
638.445505 0.221915 0.000272
645.970918 0.214064 0.000256
668.045466 0.197343 0.000367
684.099682 0.182196 0.000433
703.164064 0.201811 0.000622
716.494798 0.217949 0.000701
743.390822 0.230530 0.000983
769.387707 0.230530 0.001980
770.892790 0.215788 0.001927
778.418204 0.201427 0.001964
799.489363 0.189844 0.009369
845.845913 0.179830 0.023507
856.682509 0.167576 0.009412
895.814661 0.183238 0.016454
940.967145 0.180639 0.008790
981.102686 0.194280 0.031732
998.494753 0.207725 0.063496
1016.221284 0.224251 0.011630
1040.302609 0.240583 0.015933
1076.424595 0.232062 0.004997
1114.887822 0.223893 0.008292
1141.644850 0.212150 0.019858
1160.279208 0.197817 0.040611
1202.851550 0.190706 0.011736
1251.014199 0.202768 0.023577
1299.176848 0.206980 0.032430
1347.673960 0.212405 0.031288
1376.688611 0.199513 0.046143
1401.522477 0.219522 0.024747
1444.668184 0.208831 0.046350
1451.835245 0.197379 0.047527
1455.705458 0.186876 0.049348
1497.847776 0.214064 0.014289
1546.010425 0.213873 0.005745
1594.173074 0.214830 0.004444
1642.335723 0.210713 0.005869
1690.498373 0.213203 0.005691
1738.661022 0.219138 0.006630
1786.823671 0.224596 0.002275
1834.986320 0.226988 0.002500
1883.148969 0.227754 0.001680
1931.311618 0.220957 0.001146
1979.474268 0.212150 0.000896
2027.636917 0.207746 0.001242
2075.799566 0.207363 0.001197
2123.962215 0.207555 0.004116
2172.124864 0.212820 0.005121
2220.287514 0.219330 0.004044
2268.450163 0.226605 0.004874
2316.612812 0.229382 0.004123
2364.775461 0.230340 0.007489
2412.938110 0.231871 0.006996
2461.100759 0.227754 0.005197
2509.263409 0.224212 0.006362
2557.426058 0.218564 0.012292
2605.588707 0.214639 0.016795
2653.751356 0.210523 0.020576
2701.914005 0.207363 0.025759
2750.076655 0.203151 0.024325
2798.239304 0.200470 0.048798
2841.585688 0.189250 0.042921
2872.633396 0.178779 0.040819
2920.452026 0.171252 0.036189
2923.662869 0.163644 0.036131
2963.798410 0.178451 0.039838
2975.839073 0.194024 0.042978
3008.950894 0.207650 0.033136
3057.113543 0.217511 0.014897
3105.276192 0.223829 0.012450
3153.438841 0.229478 0.015320
3201.601491 0.232541 0.016007
3249.764140 0.234935 0.004831
3297.926789 0.234743 0.004573
3346.089438 0.234073 0.005625
3394.252087 0.232446 0.003996
3442.414737 0.229095 0.003337
3490.577386 0.224787 0.001956
3538.740035 0.219522 0.001646
3586.902684 0.215692 0.001406
3635.065333 0.213203 0.003245
3683.227982 0.212341 0.003625
3731.390632 0.211575 0.004081
3779.553281 0.212724 0.004460
3827.715930 0.213873 0.005229
3875.878579 0.215788 0.005606
3924.041228 0.218373 0.006130
3972.203878 0.221149 0.006428
4020.366527 0.224308 0.008569
4068.529176 0.226223 0.014766
4116.691825 0.228233 0.012269
4164.854474 0.229765 0.013477
4213.017123 0.229382 0.015328
4261.179773 0.228233 0.013697
4309.342422 0.227180 0.017963
4357.505071 0.226127 0.008700
4405.667720 0.223734 0.009620
4453.830369 0.221531 0.002061
4501.993019 0.219234 0.001585
4550.155668 0.217703 0.001543
4598.318317 0.216745 0.001403
4646.480966 0.216745 0.001294
4694.643615 0.217319 0.001262
4742.806264 0.218276 0.001299
4790.968914 0.220192 0.001395
4839.131563 0.222393 0.001459
4887.294212 0.224978 0.001521
4935.456861 0.227275 0.001570
4983.619510 0.229861 0.001710
5031.782160 0.232541 0.001931
5079.944809 0.234168 0.002030
5128.107458 0.235030 0.002020
5176.270107 0.234552 0.002064
5224.432756 0.233307 0.002186
5272.595405 0.231584 0.002178
5320.758055 0.229286 0.002113
5368.920704 0.227754 0.002019
5417.083353 0.226031 0.002210
5465.246002 0.225074 0.002515
5513.408651 0.223638 0.002541
5561.571301 0.223638 0.002517
5609.733950 0.223638 0.002612
5657.896599 0.224596 0.003124
5706.059248 0.225553 0.003134
5754.221897 0.227275 0.004741
5802.384546 0.228903 0.004671
5850.547196 0.231584 0.004715
5898.709845 0.233786 0.004207
5946.872494 0.235796 0.002121
5989.014812 0.236785 0.001688
